# Free energy difference as a function of time
# Base command: plumed sum_hills --hills HILLS_2D --idw lambda --kt 2.4777090399459767 --min -3.141592653589793,0.0000 --max 3.141592653589793,8.0000 --spacing 0.01,0.01 --stride NUM_STRIDE
# Column 1: Time (ps); Column 2: Free energy difference (kT)
18000   20.637522078
18002   20.637522078
18004   20.637522078
18006   20.637522078
18008   20.640140273000004
18010   20.642663977
18012   20.645278201
18014   20.647701927000004
18016   20.648977614
18018   20.649140985
18020   20.649733647
18022   20.650637559
18024   20.651220641
18026   20.651865804
18028   20.652305733000002
18030   20.654466625999998
18032   20.655556801
18034   20.655927453999997
18036   20.655927453999997
18038   20.655927453999997
18040   20.655927453999997
18042   20.655927453999997
18044   20.656028844999998
18046   20.656071256999997
18048   20.656071256999997
18050   20.656071256999997
18052   20.656114669
18054   20.656114669
18056   20.657186329
18058   20.657784675
18060   20.658606025999998
18062   20.658901390999997
18064   20.660007940000003
18066   20.660604961
18068   20.66121438
18070   20.661956993999997
18072   20.662276981
18074   20.662591774000003
18076   20.664792752999997
18078   20.665813904999997
18080   20.667015123000002
18082   20.668628883
18084   20.671134598
18086   20.673657379
18088   20.675907255000002
18090   20.677982584000002
18092   20.679296798
18094   20.681028706000003
18096   20.681028706000003
18098   20.681028706000003
18100   20.682299136999998
18102   20.682299136999998
18104   20.682299136999998
18106   20.682299136999998
18108   20.683567616
18110   20.685841801
18112   20.686926937
18114   20.68820346
18116   20.690773551000003
18118   20.692010724000003
18120   20.693300033000003
18122   20.693300033000003
18124   20.695131399999998
18126   20.695369604000003
18128   20.696683003999997
18130   20.696683003999997
18132   20.697875262999997
18134   20.699706281
18136   20.702218014
18138   20.703485470999997
18140   20.706033566
18142   20.708240296000003
18144   20.708846558
18146   20.709118999
18148   20.709433426999997
18150   20.709433426999997
18152   20.710347212
18154   20.712768301999997
18156   20.714355987
18158   20.715593492
18160   20.716828787
18162   20.719364313000003
18164   20.72141231
18166   20.72141231
18168   20.723275794
18170   20.724519406000002
18172   20.724519406000002
18174   20.725773782
18176   20.726655767999997
18178   20.728456515999998
18180   20.729377084000003
18182   20.729647760000002
18184   20.729765402
18186   20.730508085999997
18188   20.732951441
18190   20.734278092999997
18192   20.735639165
18194   20.736270284000003
18196   20.738258032
18198   20.740627235
18200   20.740627235
18202   20.741886585
18204   20.743168766999997
18206   20.743705216
18208   20.744090404
18210   20.744485354000002
18212   20.745416739000003
18214   20.746317099
18216   20.746770926
18218   20.747056963000002
18220   20.748395214000002
18222   20.749695247000002
18224   20.752190700000003
18226   20.754175076
18228   20.755409595
18230   20.756694786
18232   20.759251777
18234   20.760500445999998
18236   20.761774857000002
18238   20.764261160999997
18240   20.766780819
18242   20.769285165000003
18244   20.769285165000003
18246   20.76958213
18248   20.770835746
18250   20.773407881999997
18252   20.77464444
18254   20.7768391
18256   20.7768391
18258   20.7768391
18260   20.776897971999997
18262   20.779475946999998
18264   20.780959939000002
18266   20.782144966999997
18268   20.782781619
18270   20.783996580000004
18272   20.784356016999997
18274   20.784588406
18276   20.785025569000002
18278   20.785408088999997
18280   20.786252647
18282   20.787283605000002
18284   20.788559625999998
18286   20.788612398
18288   20.788612398
18290   20.788612398
18292   20.788612398
18294   20.788612398
18296   20.788612398
18298   20.788612398
18300   20.788612398
18302   20.791011797
18304   20.792229314
18306   20.794742011999997
18308   20.795970092
18310   20.795970092
18312   20.798459990999998
18314   20.799697957000003
18316   20.80223585
18318   20.80223585
18320   20.80223585
18322   20.802714331999997
18324   20.802714331999997
18326   20.805239138
18328   20.806499056000003
18330   20.809042285
18332   20.809042285
18334   20.810991511999998
18336   20.812805666
18338   20.815263663
18340   20.817771192
18342   20.819037507999997
18344   20.819037507999997
18346   20.819037507999997
18348   20.821370366
18350   20.823575479000002
18352   20.825185033999997
18354   20.827123910999997
18356   20.827223461
18358   20.82775378
18360   20.828736408
18362   20.828871087
18364   20.828871087
18366   20.828926139
18368   20.828926139
18370   20.828926139
18372   20.829423936999998
18374   20.830126085
18376   20.830703985000003
18378   20.830703985000003
18380   20.833210984
18382   20.833210984
18384   20.834470745
18386   20.835686476000003
18388   20.838140454
18390   20.838411421
18392   20.838937114
18394   20.839641961999998
18396   20.840082663
18398   20.840922920999997
18400   20.841226956000003
18402   20.841856859
18404   20.84234839
18406   20.84234839
18408   20.843606616
18410   20.843606616
18412   20.844144421
18414   20.844144421
18416   20.844144421
18418   20.846461414
18420   20.846461414
18422   20.847682025999998
18424   20.849686676
18426   20.850497919000002
18428   20.851300079999998
18430   20.852488674000003
18432   20.854682229
18434   20.857162235999997
18436   20.858034919
18438   20.858838019
18440   20.860343929
18442   20.862704515999997
18444   20.862704515999997
18446   20.864442808000003
18448   20.866760111
18450   20.869238552000002
18452   20.8717327
18454   20.87204606
18456   20.872901274000004
18458   20.872901274000004
18460   20.872901274000004
18462   20.872901274000004
18464   20.872901274000004
18466   20.874107028
18468   20.874107028
18470   20.874107028
18472   20.874107028
18474   20.875345571
18476   20.876820361000004
18478   20.878152798
18480   20.879875414
18482   20.88214633
18484   20.883963439000002
18486   20.886437621000002
18488   20.887667185
18490   20.890191853
18492   20.892710685999997
18494   20.893917079999998
18496   20.896380935
18498   20.896786410999997
18500   20.899267269000003
18502   20.901736987000003
18504   20.901736987000003
18506   20.901736987000003
18508   20.903132633000002
18510   20.904410532000004
18512   20.904410532000004
18514   20.904410532000004
18516   20.905666526999998
18518   20.906910941000003
18520   20.909421255999998
18522   20.909421255999998
18524   20.910712735
18526   20.912207677999998
18528   20.912207677999998
18530   20.913717063000004
18532   20.913804019
18534   20.915026021
18536   20.91627127
18538   20.918126029000003
18540   20.920657187
18542   20.920657187
18544   20.920657187
18546   20.921519295
18548   20.921602578
18550   20.921808483000003
18552   20.923589093999997
18554   20.924169789999997
18556   20.925190378
18558   20.926083555
18560   20.926581355
18562   20.928154209000002
18564   20.928154209000002
18566   20.928154209000002
18568   20.930458994000002
18570   20.932169793000003
18572   20.933725396000003
18574   20.936166199000002
18576   20.938500078
18578   20.940363647999998
18580   20.941559139000002
18582   20.942769973
18584   20.945170293999997
18586   20.94747953
18588   20.948961533
18590   20.949276303999998
18592   20.95039375
18594   20.951116443
18596   20.952557046
18598   20.953925877
18600   20.954733108000003
18602   20.955616969
18604   20.958128615000003
18606   20.958128615000003
18608   20.958128615000003
18610   20.958128615000003
18612   20.959322263999997
18614   20.959322263999997
18616   20.959322263999997
18618   20.959368344999998
18620   20.959510023000004
18622   20.961032339000003
18624   20.962097564999997
18626   20.963647836000003
18628   20.964873602
18630   20.966168096
18632   20.966168096
18634   20.967381631
18636   20.969168968
18638   20.969168968
18640   20.970363137000003
18642   20.970363137000003
18644   20.970363137000003
18646   20.970363137000003
18648   20.970363137000003
18650   20.970363137000003
18652   20.970363137000003
18654   20.971580175000003
18656   20.974051528999997
18658   20.976502835999998
18660   20.977719625000002
18662   20.977719625000002
18664   20.978994402
18666   20.978994402
18668   20.981440361
18670   20.981440361
18672   20.981440361
18674   20.981526002
18676   20.982872175
18678   20.982872175
18680   20.984131850999997
18682   20.986615355
18684   20.989152430999997
18686   20.989152430999997
18688   20.989152430999997
18690   20.990368182999998
18692   20.992900287
18694   20.994141862000003
18696   20.994141862000003
18698   20.995392827
18700   20.996680833000003
18702   20.996680833000003
18704   20.996680833000003
18706   20.996680833000003
18708   20.996680833000003
18710   20.999095661000002
18712   21.000337215
18714   21.001687288000003
18716   21.001687288000003
18718   21.004204709000003
18720   21.005450944
18722   21.005450944
18724   21.005587852
18726   21.006956716
18728   21.008230555
18730   21.009262281999998
18732   21.009262281999998
18734   21.010210666000003
18736   21.010210666000003
18738   21.012694057
18740   21.013939629000003
18742   21.015144824
18744   21.015144824
18746   21.015144824
18748   21.016077704
18750   21.016607431999997
18752   21.017004654999997
18754   21.018065363
18756   21.01885218
18758   21.019670473999998
18760   21.020486433
18762   21.021302189
18764   21.02275826
18766   21.024158425
18768   21.026317826
18770   21.027969826
18772   21.029709418
18774   21.030433628
18776   21.031422500999998
18778   21.033874454000003
18780   21.035053009
18782   21.036233835
18784   21.036907801999998
18786   21.037200117999998
18788   21.037721027
18790   21.038931263
18792   21.039467888999997
18794   21.039765692
18796   21.039944094000003
18798   21.041809095999998
18800   21.044244679
18802   21.046679284000003
18804   21.047925386
18806   21.048708469
18808   21.051138223
18810   21.052370334
18812   21.053600030000002
18814   21.053600030000002
18816   21.054823795
18818   21.054823795
18820   21.054823795
18822   21.054823795
18824   21.054823795
18826   21.056064594000002
18828   21.058570659999997
18830   21.059833506999997
18832   21.061078660000003
18834   21.061078660000003
18836   21.061078660000003
18838   21.062305831
18840   21.064836646
18842   21.065905786
18844   21.066002131999998
18846   21.066094701999997
18848   21.068364727
18850   21.069539113999998
18852   21.070786875
18854   21.073281667
18856   21.075052286
18858   21.077580649
18860   21.078785074
18862   21.078915212000002
18864   21.079965954
18866   21.080721862999997
18868   21.081457629000003
18870   21.083955555
18872   21.085215486
18874   21.085215486
18876   21.085215486
18878   21.087624582
18880   21.088799998000002
18882   21.091240803
18884   21.091240803
18886   21.092373847999998
18888   21.094340198999998
18890   21.095317071
18892   21.095317071
18894   21.097766166000003
18896   21.097766166000003
18898   21.097766166000003
18900   21.097766166000003
18902   21.097766166000003
18904   21.097766166000003
18906   21.097766166000003
18908   21.097766166000003
18910   21.097766166000003
18912   21.097766166000003
18914   21.098942150000003
18916   21.100228433
18918   21.101464865
18920   21.103981797
18922   21.104615385
18924   21.106990393
18926   21.106990393
18928   21.108159081999997
18930   21.110534734
18932   21.112889167000002
18934   21.114083742000002
18936   21.116624943
18938   21.117904964
18940   21.119572614000003
18942   21.119572614000003
18944   21.119572614000003
18946   21.097278030000002
18948   21.097278030000002
18950   21.075503268000002
18952   21.039516038000002
18954   21.00234224
18956   21.00234224
18958   20.965425384000003
18960   20.944746072
18962   20.930000430000003
18964   20.930000430000003
18966   20.907939988000003
18968   20.907939988000003
18970   20.907939988000003
18972   20.907939988000003
18974   20.907939988000003
18976   20.910380101999998
18978   20.911549110000003
18980   20.911549110000003
18982   20.911549110000003
18984   20.913157802
18986   20.913157802
18988   20.914244812
18990   20.914244812
18992   20.915425802
18994   20.916875810999997
18996   20.91890404
18998   20.919396388000003
19000   20.920668817
19002   20.921884458999997
19004   20.921884458999997
19006   20.922879441
19008   20.924118311999997
19010   20.925296957999997
19012   20.927652209
19014   20.927652209
19016   20.928913274000003
19018   20.928913274000003
19020   20.930186020999997
19022   20.932503906
19024   20.934318742000002
19026   20.935509722
19028   20.935509722
19030   20.935509722
19032   20.936706891
19034   20.936706891
19036   20.937487222999998
19038   20.937487222999998
19040   20.937487222999998
19042   20.937487222999998
19044   20.937487222999998
19046   20.937487222999998
19048   20.937487222999998
19050   20.937487222999998
19052   20.938661421
19054   20.938661421
19056   20.940785955000003
19058   20.940785955000003
19060   20.940785955000003
19062   20.940785955000003
19064   20.940785955000003
19066   20.941319714000002
19068   20.943812105
19070   20.943812105
19072   20.943812105
19074   20.945817439000002
19076   20.948166786999998
19078   20.950126732
19080   20.952466182000002
19082   20.954894289000002
19084   20.957394064
19086   20.959773829
19088   20.962137843999997
19090   20.963389216000003
19092   20.965897911
19094   20.967062915
19096   20.968203270000004
19098   20.970734907
19100   20.971899184999998
19102   20.974264616
19104   20.976590446000003
19106   20.977452117
19108   20.977452117
19110   20.977452117
19112   20.977452117
19114   20.978658128
19116   20.978658128
19118   20.979877876000003
19120   20.981048207999997
19122   20.981048207999997
19124   20.981192899
19126   20.981553927999997
19128   20.982016533
19130   20.983583899000003
19132   20.984537945
19134   20.985898718999998
19136   20.987077919999997
19138   20.989353882000003
19140   20.991861661999998
19142   20.994222254999997
19144   20.99541497
19146   20.997666381000002
19148   20.99988536
19150   21.002450563000004
19152   21.004841262
19154   21.00720534
19156   21.008366126
19158   21.010654832999997
19160   21.011128857000003
19162   21.012219180000002
19164   21.013345248999997
19166   21.015725508000003
19168   21.016216387
19170   21.016216387
19172   21.016216387
19174   21.01689682
19176   21.017872721000003
19178   21.018363245000003
19180   21.01909794
19182   21.019952316
19184   21.021119542
19186   21.021687676
19188   21.022077971
19190   21.022077971
19192   21.022077971
19194   21.022077971
19196   21.023340140000002
19198   21.025775048
19200   21.028139109999998
19202   21.028139109999998
19204   21.02930575
19206   21.030494132
19208   21.030494132
19210   21.030494132
19212   21.030494132
19214   21.031651261999997
19216   21.031651261999997
19218   21.031651261999997
19220   21.031651261999997
19222   21.032887013
19224   21.034405039
19226   21.035495857999997
19228   21.037853015000003
19230   21.037853015000003
19232   21.037853015000003
19234   21.039010470999997
19236   21.041361482
19238   21.043737694999997
19240   21.044974279
19242   21.04593029
19244   21.047199317999997
19246   21.047199317999997
19248   21.048356462
19250   21.049517101
19252   21.050467288999997
19254   21.051627214
19256   21.052823072000002
19258   21.05339925
19260   21.054153810000003
19262   21.055070966000002
19264   21.055843778000003
19266   21.056596508
19268   21.057025123000003
19270   21.058253641
19272   21.060088283
19274   21.061283761
19276   21.061731662
19278   21.062990315999997
19280   21.063028781
19282   21.063069331999998
19284   21.063069331999998
19286   21.065456232000003
19288   21.066714442
19290   21.069102037
19292   21.070087606
19294   21.072092354
19296   21.074454726
19298   21.075695668999998
19300   21.077875448
19302   21.079294089
19304   21.081682131999997
19306   21.082938876999997
19308   21.083694193
19310   21.084884615
19312   21.084884615
19314   21.085617943000003
19316   21.086478784999997
19318   21.087306341999998
19320   21.087581391
19322   21.088521579000002
19324   21.088951031999997
19326   21.088951031999997
19328   21.088951031999997
19330   21.091372051
19332   21.093768281000003
19334   21.096221419000003
19336   21.097475724
19338   21.099912127000003
19340   21.102251355
19342   21.103418640999998
19344   21.105396194
19346   21.106597436999998
19348   21.106597436999998
19350   21.107834517
19352   21.108984512
19354   21.109045353
19356   21.109045353
19358   21.109045353
19360   21.109567206
19362   21.109899392000003
19364   21.111309012
19366   21.111309012
19368   21.111309012
19370   21.112461793999998
19372   21.112842886000003
19374   21.113405219
19376   21.114567356000002
19378   21.114853195000002
19380   21.116876458
19382   21.118549158999997
19384   21.11961626
19386   21.121791594999998
19388   21.123321927
19390   21.123994426000003
19392   21.124853940999998
19394   21.124853940999998
19396   21.125176546
19398   21.125176546
19400   21.125681135
19402   21.127029418
19404   21.127888682
19406   21.130283640000002
19408   21.132632362000003
19410   21.134989351999998
19412   21.135256479
19414   21.136759470999998
19416   21.139206541999997
19418   21.140936369000002
19420   21.142669212999998
19422   21.142716651
19424   21.142716651
19426   21.142716651
19428   21.142716651
19430   21.142716651
19432   21.142716651
19434   21.143852002000003
19436   21.146201513
19438   21.147519134
19440   21.14980791
19442   21.152055824
19444   21.154414828
19446   21.156788501
19448   21.156788501
19450   21.15802009
19452   21.15802009
19454   21.15802009
19456   21.15802009
19458   21.158688484000002
19460   21.159458723999997
19462   21.160416816999998
19464   21.161223925999998
19466   21.162669530000002
19468   21.164245866
19470   21.165741017000002
19472   21.166887412
19474   21.169215344
19476   21.169569359999997
19478   21.169569359999997
19480   21.169941944
19482   21.170606938
19484   21.171555593999997
19486   21.17234544
19488   21.173488397
19490   21.173627742999997
19492   21.174344689
19494   21.175150824
19496   21.175927180000002
19498   21.176352447
19500   21.176798427
19502   21.177526741
19504   21.178314040000004
19506   21.17883965
19508   21.181155323
19510   21.181155323
19512   21.182360045000003
19514   21.184100776
19516   21.185294855000002
19518   21.187638128000003
19520   21.188845772
19522   21.19005411
19524   21.191282979
19526   21.192496718999998
19528   21.192496718999998
19530   21.194857339000002
19532   21.196051087
19534   21.198377037999997
19536   21.198377037999997
19538   21.199809132
19540   21.200424965000003
19542   21.200777197
19544   21.201176967000002
19546   21.201176967000002
19548   21.201176967000002
19550   21.202334758
19552   21.203784966
19554   21.204939873
19556   21.207116403999997
19558   21.208904672000003
19560   21.210017432
19562   21.212287038
19564   21.212817658
19566   21.212854427000003
19568   21.212854427000003
19570   21.214015069
19572   21.216316652000003
19574   21.218762040999998
19576   21.218762040999998
19578   21.218762040999998
19580   21.221105303999998
19582   21.221105303999998
19584   21.221105303999998
19586   21.221105303999998
19588   21.222142497
19590   21.223620704
19592   21.224608163
19594   21.225272355
19596   21.225991879
19598   21.226489879
19600   21.227489392000003
19602   21.227800611
19604   21.227800611
19606   21.230071855
19608   21.231298934
19610   21.231338428
19612   21.231419179
19614   21.231419179
19616   21.233807302000002
19618   21.234947129
19620   21.237320361000002
19622   21.238533259
19624   21.239761846
19626   21.240981204999997
19628   21.242134176999997
19630   21.242134176999997
19632   21.243299618
19634   21.244438670999997
19636   21.244536712
19638   21.245112323999997
19640   21.245329996000002
19642   21.245399454
19644   21.245494207999997
19646   21.245576460000002
19648   21.24564721
19650   21.245807523000003
19652   21.245896942999998
19654   21.246540934000002
19656   21.247169263000004
19658   21.247895213
19660   21.248267515000002
19662   21.248267515000002
19664   21.249234530000003
19666   21.249234530000003
19668   21.249234530000003
19670   21.249289055
19672   21.249449878999997
19674   21.249554644
19676   21.250563321999998
19678   21.250563321999998
19680   21.251720712
19682   21.252218777000003
19684   21.253252181
19686   21.254474227000003
19688   21.255544627
19690   21.256438115999998
19692   21.258473078
19694   21.260894448000002
19696   21.262101234
19698   21.262101234
19700   21.263912433
19702   21.265132793
19704   21.267582414000003
19706   21.27005294
19708   21.272411825
19710   21.272411825
19712   21.272411825
19714   21.274799842999997
19716   21.277169443
19718   21.279647500000003
19720   21.282124937
19722   21.28325494
19724   21.285473754999998
19726   21.285473754999998
19728   21.286376368
19730   21.287513261999997
19732   21.288078254
19734   21.288577429999997
19736   21.290770336999998
19738   21.293070911
19740   21.295156529000003
19742   21.297008347000002
19744   21.299395456
19746   21.300464049
19748   21.300970115
19750   21.301792438
19752   21.301792438
19754   21.301792438
19756   21.302916408999998
19758   21.302916408999998
19760   21.302916408999998
19762   21.302983366
19764   21.303069806000003
19766   21.304534222999997
19768   21.306446998
19770   21.307656948
19772   21.307656948
19774   21.308808558000003
19776   21.310288313999997
19778   21.31143032
19780   21.312644049
19782   21.314738978999998
19784   21.315927402
19786   21.315927402
19788   21.315927402
19790   21.31713913
19792   21.31713913
19794   21.318259808
19796   21.318259808
19798   21.320508963
19800   21.320902097999998
19802   21.323147476000003
19804   21.323147476000003
19806   21.324282289000003
19808   21.326443138000002
19810   21.327589058999997
19812   21.329342693
19814   21.330890417
19816   21.333063250000002
19818   21.335187138000002
19820   21.337637444000002
19822   21.339983197000002
19824   21.342335999
19826   21.343539618
19828   21.344356128999998
19830   21.345519417
19832   21.345519417
19834   21.345519417
19836   21.333037038999997
19838   21.324826282
19840   21.297212005
19842   21.290496502
19844   21.290496502
19846   21.273177925
19848   21.257425872
19850   21.238370767
19852   21.224022024
19854   21.224022024
19856   21.198246906999998
19858   21.169307057999998
19860   21.156293555999998
19862   21.156293555999998
19864   21.132729222
19866   21.124759535
19868   21.123814049
19870   21.115829917
19872   21.095873925
19874   21.09080006
19876   21.09080006
19878   21.059702183
19880   21.048129495999998
19882   21.046911623
19884   21.046414431
19886   21.034446967999997
19888   21.027838039
19890   20.992978963
19892   20.987882863
19894   20.959482713
19896   20.955069587999997
19898   20.94575875
19900   20.94575875
19902   20.941825558999998
19904   20.936909072
19906   20.935778349
19908   20.919594899
19910   20.903305497999998
19912   20.903305497999998
19914   20.903305497999998
19916   20.903305497999998
19918   20.903305497999998
19920   20.904425587000002
19922   20.905556590999996
19924   20.905556590999996
19926   20.905556590999996
19928   20.907908451999997
19930   20.910198534
19932   20.9124728
19934   20.913889031
19936   20.914681507999997
19938   20.916741399
19940   20.918250955999998
19942   20.919880711
19944   20.922233733000002
19946   20.924512664
19948   20.925670495000002
19950   20.925670495000002
19952   20.926826003
19954   20.928044410000002
19956   20.93046712
19958   20.93046712
19960   20.931690129
19962   20.934065012
19964   20.936404087000003
19966   20.937606745999997
19968   20.937606745999997
19970   20.937606745999997
19972   20.937606745999997
19974   20.937606745999997
19976   20.937606745999997
19978   20.937606745999997
19980   20.938721185000002
19982   20.939730545
19984   20.941283975
19986   20.941283975
19988   20.941283975
19990   20.942443829000002
19992   20.943602772000002
19994   20.943602772000002
19996   20.943602772000002
19998   20.944729911
20000   20.947031434
